%Wavelength (nm)	O2Hb (mm^-1mM^-1)	HHb (mm^-1mM^-1)	Water (mm^-1)	Lipid (mm^-1)
600 0.883272    3.462167    0.0002224   0.000466
601	0.788944	3.067345	0.000233588	0.000471
602	0.710117	2.704156	0.00024314	0.000479
603	0.642331	2.502866	0.00025013	0.000487
604	0.583015	2.385478	0.000254628	0.000487
605	0.530799	2.250019	0.0002577	0.000484
606	0.487227	2.106865	0.000260231	0.00048
607	0.45314	1.986005	0.000262202	0.000475
608	0.423676	1.883515	0.000263383	0.00047
609	0.394067	1.789419	0.000263933	0.000469
610	0.365651	1.703452	0.0002644	0.000464
611	0.340644	1.627117	0.000265194	0.000458
612	0.318678	1.559311	0.00026611	0.000454
613	0.298873	1.498465	0.0002668	0.000442
614	0.280915	1.443721	0.000267255	0.000427
615	0.264599	1.39434	0.0002678	0.000422
616	0.2496	1.349315	0.000268706	0.000423
617	0.235656	1.307714	0.000269964	0.00043
618	0.22289	1.269185	0.000271498	0.000437
619	2.11E-01	1.23358	0.000273315	0.000435
620	0.200785	1.201028	0.0002755	0.00043
621	1.91E-01	1.171537	0.000278003	0.000425
622	0.181444	1.144385	0.000280225	0.000433
623	1.73E-01	1.118872	0.000281473	0.00044
624	0.165786	1.095109	0.000282078	0.000438
625	1.58E-01	1.07324	0.0002834	0.000432
626	0.15105	1.052742	0.000286287	0.000426
627	1.44E-01	1.033223	0.000289377	0.000424
628	0.138155	1.01544	0.000290843	0.000426
629	1.33E-01	0.999571	0.000290859	0.000428
630	0.128024	0.982283	0.0002916	0.000428
631	1.23E-01	0.961207	0.000294561	0.000429
632	0.118813	0.941297	0.000298176	0.000437
633	1.14E-01	0.927495	0.000300206	0.000444
634	0.110524	0.91735	0.000300542	0.00044
635	1.08E-01	0.907343	0.0003012	0.000431
636	0.104998	0.897087	0.000303626	0.00042
637	1.02E-01	0.887025	0.000306598	0.000422
638	9.95E-02	0.877745	0.000308318	0.000433
639	9.74E-02	0.869636	0.000308985	0.000446
640	9.58E-02	0.862088	0.0003108	0.000452
641	9.43E-02	0.854512	0.000315194	0.00045
642	9.30E-02	0.847351	0.000320177	0.000449
643	9.19E-02	0.841095	0.000323022	0.000453
644	9.12E-02	0.835378	0.000323724	0.00046
645	9.11E-02	0.829753	0.000325	0.000465
646	9.12E-02	0.824325	0.00032877	0.000464
647	9.08E-02	0.819237	0.00033329	0.000464
648	9.03E-02	0.814194	0.000336022	0.000464
649	9.01E-02	0.808976	0.000337235	0.000465
650	9.03E-02	0.804063	0.00034	0.000471
651	9.07E-02	0.79986	0.000346445	0.000472
652	9.12E-02	0.795773	0.000354431	0.000467
653	9.13E-02	0.790977	0.000360876	0.000464
654	9.12E-02	0.784721	0.000365534	0.000457
655	9.07E-02	0.776908	0.000371	4.48E-04
656	9.03E-02	0.769984	0.000379155	4.38E-04
657	9.00E-02	0.765966	0.000388551	0.000428
658	9.03E-02	0.762616	0.000396973	0.000424
659	9.11E-02	0.757375	0.0004038	0.000422
660	9.21E-02	0.750643	0.00041	0.000418
661	9.27E-02	0.743385	0.000416255	0.000414
662	9.30E-02	0.735906	0.000421821	0.000413
663	9.31E-02	0.728266	0.000425639	0.000414
664	9.30E-02	0.720249	0.000427692	0.000419
665	9.29E-02	0.711665	0.000429	0.000428
666	9.30E-02	0.702749	0.000430628	0.000439
667	9.35E-02	0.693723	0.000467304	0.000447
668	9.39E-02	0.684328	0.000465822	0.000452
669	9.41E-02	0.674333	0.000470888	0.000453
670	9.39E-02	0.664066	0.000474391	0.00045
671	9.38E-02	0.6539	0.000475442	0.000452
672	9.39E-02	0.643803	0.000476849	0.000457
673	9.44E-02	0.633676	0.000478237	0.000462
674	9.49E-02	0.62354	0.000481705	0.000463
675	9.50E-02	0.613427	0.000486065	0.000457
676	9.49E-02	0.603277	0.000486797	0.000446
677	9.48E-02	0.593068	0.000490436	0.000433
678	9.49E-02	0.583015	0.000490739	0.000422
679	9.49E-02	0.573293	0.000496189	0.000413
680	9.49E-02	0.563673	0.000499673	0.000406
681	9.49E-02	0.55394	0.000503264	0.000398
682	9.49E-02	0.544331	0.000502884	0.000387
683	9.49E-02	0.535077	0.000507132	0.000375
684	9.49E-02	0.52591	0.000512576	0.00037
685	9.49E-02	0.51659	0.000517776	0.000369
686	9.49E-02	0.50749	0.000520704	0.000366
687	9.49E-02	0.498991	0.000526444	0.000361
688	9.49E-02	0.490911	0.000532822	0.000354
689	9.49E-02	0.482995	0.000537998	0.000348
690	9.49E-02	0.475254	0.000546102	0.000342
691	9.49E-02	0.467756	0.000557427	0.000338
692	9.49E-02	0.460517	0.000567162	3.35E-04
693	9.48E-02	0.453522	0.00057532	3.31E-04
694	9.49E-02	0.446702	0.000586404	3.28E-04
695	9.53E-02	0.440047	0.000597908	3.24E-04
696	9.58E-02	0.433807	0.000608705	3.21E-04
697	9.58E-02	0.428166	0.00062027	3.24E-04
698	9.58E-02	0.422755	0.000634293	3.27E-04
699	9.61E-02	0.41721	0.00064825	3.25E-04
700	9.67E-02	0.411702	0.000662886	3.23E-04
701	9.73E-02	0.406482	0.000678006	0.00032
702	9.76E-02	0.401571	0.000694567	0.000319
703	9.75E-02	0.396908	0.000711132	0.000322
704	9.76E-02	0.39236	0.00073132	0.000326
705	9.85E-02	0.387797	0.000748539	0.000323
706	9.95E-02	0.38315	0.000768075	0.000318
707	1.00E-01	0.378437	0.000788462	0.000313
708	0.100393	0.37394	0.000809715	0.00031
709	1.01E-01	0.369841	0.000834862	0.000311
710	0.101314	0.365651	0.000859616	0.000315
711	1.02E-01	0.360974	0.000891284	0.00032
712	0.103156	0.35644	0.000920254	0.000321
713	1.04E-01	0.352655	0.000956863	0.00032
714	0.104077	0.349072	0.000995022	0.000321
715	1.05E-01	0.345061	0.001035316	0.000326
716	0.105919	0.340783	0.001081342	0.000334
717	1.06E-01	0.336546	0.001123455	0.000343
718	0.10684	0.332493	0.001168843	0.000351
719	1.08E-01	0.328694	0.001221264	0.000358
720	0.108682	0.325125	0.001271333	0.000367
721	1.10E-01	0.321763	0.00132206	0.000376
722	0.110524	0.318678	0.001378566	0.000383
723	1.12E-01	0.315892	0.001434494	0.00039
724	0.112366	0.313152	0.001490523	0.000401
725	1.13E-01	0.310269	0.001549981	0.000415
726	0.113287	0.307625	0.001612808	0.00043
727	1.14E-01	0.30559	0.001691489	0.000447
728	0.115129	0.303941	0.00177585	0.000463
729	1.16E-01	0.302417	0.001854826	0.00048
730	0.116971	0.301178	0.00197441	0.000499
731	1.18E-01	0.300446	0.00208007	0.000516
732	0.118813	0.300257	0.002186095	0.000535
733	1.20E-01	0.300566	0.002301568	0.000552
734	0.120655	0.301178	0.002426614	0.000564
735	1.22E-01	0.301945	0.002509069	0.000576
736	0.122498	0.30302	0.002582038	0.000589
737	1.23E-01	0.304593	0.002646795	0.0006
738	0.12434	0.306704	0.002706236	0.000616
739	1.25E-01	0.309313	0.002753663	0.000636
740	0.126182	0.312231	0.002780924	0.000654
741	1.27E-01	0.315304	0.002804338	0.00068
742	0.128024	0.318678	0.002813927	0.000707
743	1.29E-01	0.322542	0.002826371	0.000735
744	0.129866	0.326967	0.002837568	0.000768
745	1.31E-01	0.331922	0.002832668	0.000801
746	0.131708	0.337098	0.002843085	0.000837
747	1.33E-01	0.342194	0.002842442	0.000874
748	0.13355	0.34723	0.002848494	0.000908
749	1.35E-01	0.352284	0.002852572	0.000941
750	0.136313	0.357361	0.00285328	0.000972
751	1.37E-01	0.362438	0.002861953	0.001
752	0.138155	0.367493	0.002858476	0.00103
753	1.39E-01	0.372406	0.002870406	0.00106
754	0.139997	0.376703	0.002866201	0.00109
755	1.41E-01	0.37995	0.002875585	0.00112
756	0.141839	0.382229	0.002876949	0.00116
757	1.43E-01	0.383673	0.00287122	0.00119
758	0.144602	0.384071	0.002868523	0.00123
759	1.46E-01	0.383228	0.002863259	0.00126
760	0.146444	0.381308	0.002861621	0.00128
761	1.47E-01	0.37852	0.002873257	0.00129
762	0.148286	0.374861	0.002870099	0.00129
763	1.49E-01	0.370283	0.002865499	0.00127
764	0.150129	0.364729	0.002861673	0.00125
765	1.52E-01	0.358197	0.002859644	0.00121
766	0.152892	0.350914	0.002850933	0.00115
767	1.54E-01	0.343166	0.002833701	0.00109
768	0.154734	0.335256	0.002830706	0.00102
769	1.56E-01	0.327421	0.002826937	0.000948
770	0.157497	0.319599	0.002824503	0.000871
771	1.59E-01	0.311719	0.002813336	0.000793
772	0.159339	0.303941	0.002792704	0.000719
773	1.60E-01	0.296435	0.002779551	0.000653
774	0.161181	0.289205	0.002776291	0.000596
775	1.63E-01	0.282207	0.0027585	0.000553
776	0.163944	0.275389	0.002753041	0.000515
777	1.65E-01	0.268749	0.002743152	0.000481
778	0.165786	0.262495	0.002723577	0.000451
779	1.67E-01	0.2568	0.00270794	0.000426
780	0.168549	0.251442	0.002690492	0.000409
781	1.69E-01	0.246209	0.002661718	0.000391
782	0.170391	0.241311	0.002641006	0.000378
783	1.72E-01	0.236966	0.002625523	0.000366
784	0.173154	0.233022	0.002609012	0.00036
785	1.74E-01	2.29E-01	0.002591474	0.000357
786	0.174996	0.225653	0.002563853	0.000355
787	1.76E-01	2.22E-01	0.002531684	0.000353
788	0.17776	0.219206	0.002511814	0.000349
789	1.79E-01	2.17E-01	0.002491397	0.000346
790	0.180523	0.214601	0.002463746	0.000346
791	1.81E-01	2.12E-01	0.002448075	0.000347
792	0.182365	0.209996	0.002422891	0.000347
793	1.84E-01	2.08E-01	0.002392497	0.000347
794	0.185128	0.205391	0.00236912	0.000352
795	1.86E-01	2.03E-01	0.002354041	0.000359
796	0.18697	0.201706	0.002338836	0.000369
797	1.88E-01	2.00E-01	0.002323948	0.000379
798	0.189733	0.198943	0.002302244	0.000387
799	1.91E-01	1.98E-01	0.002271586	0.000393
800	0.191575	0.198022	0.002246239	0.000403
801	1.92E-01	1.98E-01	0.002243339	0.000413
802	1.93E-01	1.97E-01	0.002234299	0.000424
803	1.94E-01	1.97E-01	0.00221613	0.000434
804	1.95E-01	1.96E-01	0.002203259	0.000442
805	1.96E-01	1.96E-01	0.002200329	0.000454
806	1.96E-01	1.95E-01	0.002200729	0.000467
807	1.97E-01	1.95E-01	0.0021885	0.000482
808	1.98E-01	1.94E-01	0.002178196	0.000497
809	1.99E-01	1.93E-01	0.002189242	0.000511
810	2.00E-01	1.92E-01	0.002187531	0.000527
811	2.01E-01	1.92E-01	0.00219004	0.000547
812	2.02E-01	1.91E-01	0.002201706	0.000567
813	2.03E-01	1.90E-01	0.002210321	0.000583
814	2.03E-01	1.89E-01	0.002218503	0.000594
815	2.04E-01	1.88E-01	0.002234492	0.000603
816	2.05E-01	1.87E-01	0.002255477	0.000615
817	2.06E-01	1.87E-01	0.002276405	0.000633
818	2.07E-01	1.86E-01	0.002298093	0.000654
819	2.08E-01	1.85E-01	0.002313997	0.000674
820	2.09E-01	1.84E-01	0.002341478	0.000691
821	2.10E-01	1.83E-01	0.002387763	0.000708
822	2.11E-01	1.82E-01	0.002427632	0.000724
823	2.12E-01	1.81E-01	0.002475926	0.00074
824	2.13E-01	1.81E-01	0.002535568	0.000758
825	2.14E-01	1.80E-01	0.002610031	0.000775
826	2.15E-01	1.79E-01	0.002721295	0.000786
827	2.16E-01	1.79E-01	0.002829698	0.000796
828	2.17E-01	1.78E-01	0.002939154	0.000799
829	2.18E-01	1.77E-01	0.003077935	0.000802
830	2.19E-01	1.77E-01	0.003218351	0.000803
831	2.20E-01	1.76E-01	0.003349583	0.000803
832	2.21E-01	1.76E-01	0.003470787	0.000801
833	2.22E-01	1.75E-01	0.003577023	0.000794
834	2.23E-01	1.75E-01	0.003657882	0.000785
835	2.24E-01	1.75E-01	0.003722314	0.000775
836	2.25E-01	1.75E-01	0.003781945	0.000764
837	2.26E-01	1.75E-01	0.003833369	0.000757
838	2.27E-01	1.75E-01	0.003877397	0.000751
839	2.27E-01	1.75E-01	0.003912648	0.000739
840	0.228416	0.174996	0.003939293	0.000726
841	2.29E-01	1.75E-01	0.003972241	0.000715
842	0.230272	1.76E-01	0.004006954	0.000703
843	0.231193	1.76E-01	0.004033711	0.000692
844	0.23211	1.76E-01	0.004059911	0.000685
845	0.233022	0.176839	0.0040882	0.000678
846	0.233931	1.77E-01	0.004114521	0.000669
847	0.234838	1.78E-01	0.004136285	0.000661
848	0.235741	1.78E-01	0.004172823	0.000651
849	0.236641	1.78E-01	0.004205431	0.000643
850	0.237539	1.78E-01	0.004199792	0.000637
851	0.23843	1.79E-01	0.00420034	0.000633
852	0.239319	1.79E-01	0.004226232	0.000632
853	0.240203	1.79E-01	0.004264685	0.000631
854	0.241083	1.79E-01	0.004290724	0.000633
855	0.241958	1.79E-01	0.004317872	0.000639
856	0.242828	1.80E-01	0.004353682	0.000647
857	0.243692	1.80E-01	0.004371523	0.000656
858	0.244551	1.80E-01	0.00439251	0.000662
859	0.245405	1.80E-01	0.004428743	0.000666
860	0.246252	1.80E-01	0.00445574	0.000674
861	0.247093	1.80E-01	0.004476598	0.00068
862	0.247926	1.80E-01	0.00450124	0.00069
863	0.248755	1.80E-01	0.0045335	0.000705
864	0.249577	1.80E-01	0.004568213	0.000724
865	0.25039	1.81E-01	0.004601426	0.000751
866	0.251196	1.81E-01	0.004634498	0.000786
867	0.251995	1.81E-01	0.00466847	0.000822
868	0.252785	1.81E-01	0.004701547	0.00086
869	0.253568	1.81E-01	0.004731708	0.000899
870	0.254344	1.81E-01	0.004773501	0.000938
871	0.255108	1.81E-01	0.004827527	0.000979
872	0.255866	1.82E-01	0.004873086	0.00102
873	0.256614	1.82E-01	0.004911484	0.00107
874	0.257351	1.82E-01	0.004954669	0.00113
875	0.258081	1.82E-01	0.00501245	0.0012
876	0.258799	1.83E-01	0.005064666	0.00126
877	0.259508	1.83E-01	0.005104785	0.00135
878	0.260208	1.83E-01	0.005161031	0.00143
879	0.260897	1.84E-01	0.005223288	0.00153
880	0.261574	0.184207	0.0052787	0.00164
881	0.262241	1.85E-01	0.005339606	0.00175
882	0.262895	1.85E-01	0.005396915	0.00187
883	0.26354	1.86E-01	0.005442273	0.00199
884	0.264171	1.86E-01	0.005498754	0.00212
885	0.264788	1.87E-01	0.005566121	0.00226
886	0.265394	1.87E-01	0.005627422	0.00241
887	0.265985	1.88E-01	0.005683921	0.00258
888	0.266563	1.89E-01	0.005739265	0.00275
889	0.267128	1.89E-01	0.005794586	0.00293
890	0.267676	1.90E-01	0.005849904	0.00312
891	0.26821	1.90E-01	0.005905037	0.00331
892	0.268725	1.91E-01	0.005960036	0.00349
893	0.269227	1.92E-01	0.00601494	0.00367
894	0.269713	1.92E-01	0.006069729	0.00383
895	0.270181	1.93E-01	0.006124294	0.00398
896	0.27063	1.93E-01	0.006178845	0.00412
897	0.271063	1.94E-01	0.006233606	0.00426
898	0.271475	1.94E-01	0.006287106	0.00438
899	0.271871	1.95E-01	0.006340754	0.00451
900	0.272246	1.95E-01	0.006400894	0.00463
901	0.272601	1.95E-01	0.00646451	0.00477
902	0.272937	1.96E-01	0.006526352	0.00492
903	0.273252	1.96E-01	0.00659148	0.00508
904	0.273547	0.19618	0.00665827	0.00527
905	0.273821	1.96E-01	0.006718996	0.00547
906	0.274072	1.96E-01	0.006784521	0.00572
907	0.274302	1.96E-01	0.006863943	0.00599
908	0.274512	1.96E-01	0.00694456	0.00632
909	0.274698	1.96E-01	0.007026992	0.00666
910	0.274866	1.96E-01	0.007120957	0.00705
911	0.275012	1.96E-01	0.007217429	0.00744
912	0.275136	1.96E-01	0.007313012	0.00784
913	0.27524	1.95E-01	0.007423561	0.00823
914	0.275322	1.95E-01	0.007548312	0.00862
915	0.275385	1.94E-01	0.007677176	0.00899
916	0.275428	1.94E-01	0.007826682	0.00935
917	0.275449	1.93E-01	0.00800664	0.00968
918	0.275449	1.93E-01	0.008193495	0.01
919	0.275428	1.92E-01	0.008387851	0.0103
920	0.275389	0.191575	0.008608502	0.0107
921	0.275329	1.91E-01	0.008852734	0.011
922	0.275249	1.90E-01	0.009118045	0.0113
923	0.275147	1.89E-01	0.009418148	0.0117
924	0.27503	1.89E-01	0.009749191	0.012
925	0.274892	1.88E-01	0.010092204	0.0123
926	0.274735	1.87E-01	0.010462469	0.0126
927	0.27456	1.86E-01	0.010876606	0.0128
928	0.274367	1.85E-01	0.011309165	0.013
929	0.274155	1.84E-01	0.011752729	0.0131
930	0.273929	1.83E-01	0.012232193	0.0131
931	0.273685	1.82E-01	0.012753839	0.013
932	0.273423	1.80E-01	0.013303953	0.0128
933	0.273146	1.79E-01	0.013847224	0.0125
934	0.272854	1.78E-01	0.014358692	0.0122
935	0.272545	1.76E-01	0.014853359	0.0118
936	0.272221	1.75E-01	0.015386419	0.0113
937	0.271885	1.73E-01	0.016046456	0.0107
938	0.27153	1.72E-01	0.016801658	0.0101
939	0.271164	1.70E-01	0.017565021	0.00943
940	0.270784	0.168549	0.018343774	0.00875
941	0.27039	1.67E-01	0.019147372	0.00809
942	0.269983	1.65E-01	0.019921195	0.00745
943	0.269564	1.63E-01	0.020698731	0.00682
944	0.269131	1.61E-01	0.021626524	0.00625
945	0.268686	1.59E-01	0.02266354	0.0057
946	0.268228	1.57E-01	0.023651911	0.00523
947	0.267758	1.55E-01	0.024681573	0.0048
948	0.267277	1.53E-01	0.025909354	0.00445
949	0.266784	1.51E-01	0.027308981	0.00411
950	0.26628	1.49E-01	0.028813561	0.0038
951	0.265764	1.46E-01	0.030370164	0.00352
952	0.265237	1.44E-01	0.032011063	0.00327
953	0.264701	1.42E-01	0.033862097	0.00305
954	0.264153	1.40E-01	0.035831366	0.00285
955	0.263593	1.37E-01	0.037675104	0.00267
956	0.263024	1.35E-01	0.03930277	0.0025
957	0.262446	1.32E-01	0.040711903	0.00236
958	0.261857	1.30E-01	0.041969951	0.00224
959	0.261261	1.28E-01	0.043130559	0.00213
960	0.260653	0.125261	0.044154838	0.00205
961	0.260036	1.23E-01	0.04500089	0.00198
962	0.259412	1.20E-01	0.045652678	0.00192
963	0.258778	1.18E-01	0.046140094	0.00186
964	0.258136	1.16E-01	0.04653522	0.00181
965	0.257484	1.13E-01	0.046890864	0.00175
966	0.256826	1.11E-01	0.047236858	0.00169
967	0.25616	1.08E-01	0.047533664	0.00164
968	0.255486	1.06E-01	0.047721797	0.00159
969	0.254804	1.03E-01	0.047853362	0.00155
970	0.254116	1.01E-01	0.04800052	0.00153
971	0.25342	9.87E-02	0.048164731	0.00151
972	0.252718	9.64E-02	0.048327837	0.00149
973	0.252009	9.41E-02	0.04846595	0.00146
974	0.251293	9.19E-02	0.048562146	0.00143
975	0.250572	8.96E-02	0.048617442	0.00141
976	0.249844	8.74E-02	0.048638289	0.00141
977	0.249112	8.53E-02	0.048635564	0.00141
978	0.248373	8.31E-02	0.048594532	0.00142
979	0.247629	8.11E-02	0.048469275	0.00142
980	0.246881	7.90E-02	0.048274408	0.00142
981	0.246128	7.70E-02	0.048082858	0.00141
982	0.24537	7.51E-02	0.047903109	0.00141
983	0.244608	7.32E-02	0.04769484	0.00142
984	0.243841	7.14E-02	0.047446362	0.00144
985	0.24307	6.97E-02	0.04716246	0.00148
986	0.242296	6.80E-02	0.04683571	0.00152
987	0.241518	6.63E-02	0.046458356	0.00156
988	0.240738	6.48E-02	0.046074306	0.00161
989	0.239952	6.33E-02	0.045729332	0.00165
990	0.239165	6.19E-02	0.045353906	0.00172
991	0.238375	6.05E-02	0.044871394	0.00179
992	0.237583	5.93E-02	0.044376772	0.00189
993	0.236789	5.81E-02	0.043985951	0.00199
994	0.235992	5.70E-02	0.043615673	0.00209
995	0.235193	5.60E-02	0.043154317	0.00218
996	0.234392	5.51E-02	0.042644912	0.00227
997	0.23359	5.43E-02	0.042152822	0.00237
998	0.232789	5.36E-02	0.041678043	0.00246
999	0.231983	5.30E-02	0.041204231	0.00256
1000	0.23118	5.25E-02	0.040715041	0.00265